*RAS_DATA_START
*RAS_HEADER_START
*DISP_FMT_X "%.2f"
*DISP_FMT_Y "%.0f"
*DISP_FULLSCALE "699.6000000000"
*DISP_LINE_COLOR "255.0000000000"
*DISP_LINE_STYLE "0.0000000000"
*DISP_LINE_WIDTH "0.2500000000"
*DISP_NOTE "Collected Data-1"
*DISP_OFFSET_Y "0.0000000000"
*DISP_PEAKSEARCH_UNIT_Y "COUNTS"
*DISP_RANGE_BOTTOM "0.0000000000"
*DISP_RANGE_LEFT "10.0000000000"
*DISP_RANGE_LOGCUTOFF "0.0100000000"
*DISP_RANGE_RIGHT "90.0000000000"
*DISP_RANGE_TOP "699.6000000000"
*DISP_SCALE_MODE_Y "0.0000000000"
*DISP_TAB_NAME "Theta/2-Theta"
*DISP_TITLE_Y "Intensity"
*DISP_UNIT_Y "COUNTS"
*DISP_WINDOW_NAME "MSG_MACROENGINE"
*FILE_COMMENT " "
*FILE_MD5 ""
*FILE_MEMO " "
*FILE_OPERATOR "Administrator"
*FILE_PART_ID "MEAS_PBEA_00223"
*FILE_SAMPLE "Hematite"
*FILE_TYPE "RAS_RAW"
*FILE_USERGROUP "System Manager"
*FILE_VERSION "1.0000000000"
*HW_ATTACHMENT_ID "ATT1031"
*HW_ATTACHMENT_NAME "6サンプルチェンジャ|ASC-6"
*HW_COUNTER_ID-0 "CUT0021"
*HW_COUNTER_ID-1 "CUT0020"
*HW_COUNTER_ID-2 "CUT0020"
*HW_COUNTER_ID-3 "CMC0021"
*HW_COUNTER_NAME-0 "SC-70|SC-70"
*HW_COUNTER_NAME-1 "None|None"
*HW_COUNTER_NAME-2 "None|None"
*HW_COUNTER_NAME-3 "検出器モノクロメータ|Detector monochromator"
*HW_COUNTER_SELECT_NAME "SC-70|SC-70"
*HW_ECP_HV "714.0000000000"
*HW_ECP_HV_UNIT "V"
*HW_GONIOMETER_ID "GON0070"
*HW_GONIOMETER_NAME "MiniFlex 300/600|MiniFlex 300/600"
*HW_GONIOMETER_RADIUS-0 "79.0"
*HW_GONIOMETER_RADIUS-1 "91.5"
*HW_GONIOMETER_RADIUS-2 "150.0"
*HW_GONIOMETER_RADIUS-3 "0"
*HW_GONIOMETER_RADIUS-4 "103.4"
*HW_GONIOMETER_RADIUS-5 "150.0"
*HW_GONIOMETER_RADIUS-6 "46.6"
*HW_GONIOMETER_RADIUS-7 "160.0"
*HW_I_OPT_ID-0 "ISL0021"
*HW_I_OPT_ID-1 "ISO0021"
*HW_I_OPT_NAME-0 "発散スリット|Divergence slit"
*HW_I_OPT_NAME-1 "入射平行スリット|Incident parallel slit"
*HW_R_ATTENUATER_AUTOMODE "0"
*HW_R_OPT_ID-0 "RSS0021"
*HW_R_OPT_ID-1 "RSO0021"
*HW_R_OPT_ID-2 "RRS0021"
*HW_R_OPT_NAME-0 "散乱スリット|Scattering slit"
*HW_R_OPT_NAME-1 "受光平行スリット|Receiving soller slit"
*HW_R_OPT_NAME-2 "受光スリット|Receiving slit"
*HW_SAMPLE_HOLDER_ID "SMP0000"
*HW_SAMPLE_HOLDER_NAME "無し|None"
*HW_XG_CURRENT_MAX "50"
*HW_XG_CURRENT_MIN "2"
*HW_XG_CURRENT_RESOLUTION "2"
*HW_XG_CURRENT_UNIT "mA"
*HW_XG_FOCUS "1mm x 10mm"
*HW_XG_FOCUS_TYPE "Normal"
*HW_XG_ID "1062"
*HW_XG_NAME "300W/600W 封入管-A|300W/600W Sealed tube-A"
*HW_XG_TARGET_ATOMIC_NUMBER "29.0000000000"
*HW_XG_TARGET_NAME "Cu"
*HW_XG_TYPE "Compact"
*HW_XG_VOLTAGE_MAX "60"
*HW_XG_VOLTAGE_MIN "20"
*HW_XG_VOLTAGE_RESOLUTION "2"
*HW_XG_VOLTAGE_UNIT "kV"
*HW_XG_WATT_MAX "2.000"
*HW_XG_WATT_UNIT "kW"
*HW_XG_WAVE_LENGTH_ALPHA1 "1.540593"
*HW_XG_WAVE_LENGTH_ALPHA2 "1.544414"
*HW_XG_WAVE_LENGTH_BETA "1.392250"
*MEAS_COND_AXIS_NAME-0 "Theta/2-Theta"
*MEAS_COND_AXIS_NAME-1 "Spin"
*MEAS_COND_AXIS_NAME-2 "Change"
*MEAS_COND_AXIS_NAME-3 "Soller(inc.)"
*MEAS_COND_AXIS_NAME-4 "IHS"
*MEAS_COND_AXIS_NAME-5 "DS"
*MEAS_COND_AXIS_NAME-6 "SS"
*MEAS_COND_AXIS_NAME-7 "Soller(rec.)"
*MEAS_COND_AXIS_NAME-8 "RS"
*MEAS_COND_AXIS_NAME-9 "Filter"
*MEAS_COND_AXIS_NAME-10 "Monochromator"
*MEAS_COND_AXIS_NAME-11 "HV"
*MEAS_COND_AXIS_NAME-12 "PHA"
*MEAS_COND_AXIS_NAME_INTERNAL-0 "TwoThetaTheta"
*MEAS_COND_AXIS_NAME_INTERNAL-1 "Spin"
*MEAS_COND_AXIS_NAME_INTERNAL-2 "Change"
*MEAS_COND_AXIS_NAME_INTERNAL-3 "IncidentSollerSlit"
*MEAS_COND_AXIS_NAME_INTERNAL-4 "IncidentAxdSlit"
*MEAS_COND_AXIS_NAME_INTERNAL-5 "IncidentSlitBox"
*MEAS_COND_AXIS_NAME_INTERNAL-6 "ReceivingSlitBox1"
*MEAS_COND_AXIS_NAME_INTERNAL-7 "ReceivingSollerSlit"
*MEAS_COND_AXIS_NAME_INTERNAL-8 "ReceivingSlitBox2"
*MEAS_COND_AXIS_NAME_INTERNAL-9 "Filter"
*MEAS_COND_AXIS_NAME_INTERNAL-10 "CounterMonochromator"
*MEAS_COND_AXIS_NAME_INTERNAL-11 "HV"
*MEAS_COND_AXIS_NAME_INTERNAL-12 "PHA"
*MEAS_COND_AXIS_NAME_MAGICNO-0 "268632064.0000000000"
*MEAS_COND_AXIS_NAME_MAGICNO-1 "16842752.0000000000"
*MEAS_COND_AXIS_NAME_MAGICNO-2 "16842752.0000000000"
*MEAS_COND_AXIS_NAME_MAGICNO-3 "20971521.0000000000"
*MEAS_COND_AXIS_NAME_MAGICNO-4 "22020097.0000000000"
*MEAS_COND_AXIS_NAME_MAGICNO-5 "22020097.0000000000"
*MEAS_COND_AXIS_NAME_MAGICNO-6 "23068673.0000000000"
*MEAS_COND_AXIS_NAME_MAGICNO-7 "20971521.0000000000"
*MEAS_COND_AXIS_NAME_MAGICNO-8 "23068673.0000000000"
*MEAS_COND_AXIS_NAME_MAGICNO-9 "20971521.0000000000"
*MEAS_COND_AXIS_NAME_MAGICNO-10 "20971521.0000000000"
*MEAS_COND_AXIS_NAME_MAGICNO-11 "0.0000000000"
*MEAS_COND_AXIS_NAME_MAGICNO-12 "0.0000000000"
*MEAS_COND_AXIS_OFFSET-0 "0.0000000000"
*MEAS_COND_AXIS_OFFSET-1 "-"
*MEAS_COND_AXIS_OFFSET-2 "-"
*MEAS_COND_AXIS_OFFSET-3 "-"
*MEAS_COND_AXIS_OFFSET-4 "-"
*MEAS_COND_AXIS_OFFSET-5 "-"
*MEAS_COND_AXIS_OFFSET-6 "-"
*MEAS_COND_AXIS_OFFSET-7 "-"
*MEAS_COND_AXIS_OFFSET-8 "-"
*MEAS_COND_AXIS_OFFSET-9 "-"
*MEAS_COND_AXIS_OFFSET-10 "-"
*MEAS_COND_AXIS_OFFSET-11 "-"
*MEAS_COND_AXIS_OFFSET-12 "-"
*MEAS_COND_AXIS_POSITION-0 "10.0000000000"
*MEAS_COND_AXIS_POSITION-1 "0.0000000000"
*MEAS_COND_AXIS_POSITION-2 "3.0000000000"
*MEAS_COND_AXIS_POSITION-3 "2.5deg"
*MEAS_COND_AXIS_POSITION-4 "10.0mm"
*MEAS_COND_AXIS_POSITION-5 "1.250deg"
*MEAS_COND_AXIS_POSITION-6 "13.0mm(Open)"
*MEAS_COND_AXIS_POSITION-7 "5.0deg"
*MEAS_COND_AXIS_POSITION-8 "13.0mm"
*MEAS_COND_AXIS_POSITION-9 "None"
*MEAS_COND_AXIS_POSITION-10 "None"
*MEAS_COND_AXIS_POSITION-11 "714.0000000000"
*MEAS_COND_AXIS_POSITION-12 "568.7500000000"
*MEAS_COND_AXIS_UNIT-0 "deg"
*MEAS_COND_AXIS_UNIT-1 ""
*MEAS_COND_AXIS_UNIT-2 ""
*MEAS_COND_AXIS_UNIT-3 ""
*MEAS_COND_AXIS_UNIT-4 ""
*MEAS_COND_AXIS_UNIT-5 ""
*MEAS_COND_AXIS_UNIT-6 ""
*MEAS_COND_AXIS_UNIT-7 ""
*MEAS_COND_AXIS_UNIT-8 ""
*MEAS_COND_AXIS_UNIT-9 ""
*MEAS_COND_AXIS_UNIT-10 ""
*MEAS_COND_AXIS_UNIT-11 "V"
*MEAS_COND_AXIS_UNIT-12 "mV"
*MEAS_COND_CORRECTION_SLIT_COUNTERMONO "None"
*MEAS_COND_CORRECTION_SLIT_DS "1.250deg"
*MEAS_COND_CORRECTION_SLIT_FILTER "None"
*MEAS_COND_CORRECTION_SLIT_IHS "10.0mm"
*MEAS_COND_CORRECTION_SLIT_RS "13.0mm"
*MEAS_COND_CORRECTION_SLIT_SOLLER_INC "2.5deg"
*MEAS_COND_CORRECTION_SLIT_SOLLER_REC "5.0deg"
*MEAS_COND_CORRECTION_SLIT_SS "13.0mm"
*MEAS_COND_COUNTER_CNTLOSS_CORR "0.0000000000"
*MEAS_COND_COUNTER_PHABASE "568.7500000000"
*MEAS_COND_COUNTER_PHAWINDOW "926.2500000000"
*MEAS_COND_COUNTER_PHA_UNIT "mV"
*MEAS_COND_COUNTER_TAUDIFF "0.2500000000"
*MEAS_COND_COUNTER_TAUINT "0.7500000000"
*MEAS_COND_IRRADIATION_MODE "OFF"
*MEAS_COND_IRRADIATION_WIDTH ""
*MEAS_COND_OPT_ATTR " "
*MEAS_COND_OPT_NAME ""
*MEAS_COND_UNSYMMETRIC_MODE "OFF"
*MEAS_COND_XG_CURRENT "15.0000000000"
*MEAS_COND_XG_VOLTAGE "40.0000000000"
*MEAS_COND_XG_WAVE_TYPE "Ka"
*MEAS_DATA_COUNT "4001.0000000000"
*MEAS_SCAN_AXIS_X "Theta/2-Theta"
*MEAS_SCAN_AXIS_X_INTERNAL "TwoThetaTheta"
*MEAS_SCAN_END_TIME "03/07/24 14:38:08"
*MEAS_SCAN_MODE "CONTINUOUS"
*MEAS_SCAN_MONITOR "0"
*MEAS_SCAN_RESOLUTION_X "0.0025"
*MEAS_SCAN_SPEED "2.0000"
*MEAS_SCAN_SPEED_UNIT "deg/min"
*MEAS_SCAN_SPEED_USER "2.0000"
*MEAS_SCAN_START "10.0000000000"
*MEAS_SCAN_START_TIME "03/07/24 13:58:00"
*MEAS_SCAN_STEP "0.0200000000"
*MEAS_SCAN_STOP "90.0000000000"
*MEAS_SCAN_UNIT_X "deg"
*MEAS_SCAN_UNIT_Y "counts"
*SLIT_SYSTEM "0"
*RAS_HEADER_END
*RAS_INT_START
10.0000 501.0000 1.0000
10.0200 489.0000 1.0000
10.0400 467.0000 1.0000
10.0600 453.0000 1.0000
10.0800 467.0000 1.0000
10.1000 459.0000 1.0000
10.1200 441.0000 1.0000
10.1400 511.0000 1.0000
10.1600 532.0000 1.0000
10.1800 507.0000 1.0000
10.2000 467.0000 1.0000
10.2200 543.0000 1.0000
10.2400 464.0000 1.0000
10.2600 457.0000 1.0000
10.2800 467.0000 1.0000
10.3000 472.0000 1.0000
10.3200 447.0000 1.0000
10.3400 477.0000 1.0000
10.3600 460.0000 1.0000
10.3800 448.0000 1.0000
10.4000 464.0000 1.0000
10.4200 470.0000 1.0000
10.4400 453.0000 1.0000
10.4600 420.0000 1.0000
10.4800 439.0000 1.0000
10.5000 504.0000 1.0000
10.5200 474.0000 1.0000
10.5400 438.0000 1.0000
10.5600 391.0000 1.0000
10.5800 442.0000 1.0000
10.6000 460.0000 1.0000
10.6200 440.0000 1.0000
10.6400 413.0000 1.0000
10.6600 452.0000 1.0000
10.6800 415.0000 1.0000
10.7000 430.0000 1.0000
10.7200 495.0000 1.0000
10.7400 428.0000 1.0000
10.7600 396.0000 1.0000
10.7800 475.0000 1.0000
10.8000 422.0000 1.0000
10.8200 413.0000 1.0000
10.8400 490.0000 1.0000
10.8600 429.0000 1.0000
10.8800 447.0000 1.0000
10.9000 413.0000 1.0000
10.9200 491.0000 1.0000
10.9400 484.0000 1.0000
10.9600 432.0000 1.0000
10.9800 453.0000 1.0000
11.0000 415.0000 1.0000
11.0200 480.0000 1.0000
11.0400 452.0000 1.0000
11.0600 473.0000 1.0000
11.0800 424.0000 1.0000
11.1000 438.0000 1.0000
11.1200 469.0000 1.0000
11.1400 438.0000 1.0000
11.1600 456.0000 1.0000
11.1800 442.0000 1.0000
11.2000 434.0000 1.0000
11.2200 457.0000 1.0000
11.2400 437.0000 1.0000
11.2600 432.0000 1.0000
11.2800 426.0000 1.0000
11.3000 453.0000 1.0000
11.3200 453.0000 1.0000
11.3400 427.0000 1.0000
11.3600 411.0000 1.0000
11.3800 407.0000 1.0000
11.4000 454.0000 1.0000
11.4200 416.0000 1.0000
11.4400 402.0000 1.0000
11.4600 395.0000 1.0000
11.4800 437.0000 1.0000
11.5000 454.0000 1.0000
11.5200 438.0000 1.0000
11.5400 384.0000 1.0000
11.5600 409.0000 1.0000
11.5800 439.0000 1.0000
11.6000 434.0000 1.0000
11.6200 425.0000 1.0000
11.6400 440.0000 1.0000
11.6600 433.0000 1.0000
11.6800 443.0000 1.0000
11.7000 390.0000 1.0000
11.7200 402.0000 1.0000
11.7400 419.0000 1.0000
11.7600 385.0000 1.0000
11.7800 387.0000 1.0000
11.8000 409.0000 1.0000
11.8200 407.0000 1.0000
11.8400 373.0000 1.0000
11.8600 432.0000 1.0000
11.8800 434.0000 1.0000
11.9000 418.0000 1.0000
11.9200 408.0000 1.0000
11.9400 390.0000 1.0000
11.9600 430.0000 1.0000
11.9800 425.0000 1.0000
12.0000 404.0000 1.0000
12.0200 431.0000 1.0000
12.0400 398.0000 1.0000
12.0600 413.0000 1.0000
12.0800 404.0000 1.0000
12.1000 348.0000 1.0000
12.1200 427.0000 1.0000
12.1400 421.0000 1.0000
12.1600 392.0000 1.0000
12.1800 369.0000 1.0000
12.2000 405.0000 1.0000
12.2200 461.0000 1.0000
12.2400 463.0000 1.0000
12.2600 401.0000 1.0000
12.2800 433.0000 1.0000
12.3000 363.0000 1.0000
12.3200 399.0000 1.0000
12.3400 412.0000 1.0000
12.3600 378.0000 1.0000
12.3800 390.0000 1.0000
12.4000 465.0000 1.0000
12.4200 384.0000 1.0000
12.4400 424.0000 1.0000
12.4600 447.0000 1.0000
12.4800 361.0000 1.0000
12.5000 397.0000 1.0000
12.5200 430.0000 1.0000
12.5400 412.0000 1.0000
12.5600 447.0000 1.0000
12.5800 422.0000 1.0000
12.6000 356.0000 1.0000
12.6200 403.0000 1.0000
12.6400 376.0000 1.0000
12.6600 424.0000 1.0000
12.6800 367.0000 1.0000
12.7000 358.0000 1.0000
12.7200 431.0000 1.0000
12.7400 418.0000 1.0000
12.7600 405.0000 1.0000
12.7800 369.0000 1.0000
12.8000 428.0000 1.0000
12.8200 433.0000 1.0000
12.8400 367.0000 1.0000
12.8600 388.0000 1.0000
12.8800 420.0000 1.0000
12.9000 365.0000 1.0000
12.9200 405.0000 1.0000
12.9400 360.0000 1.0000
12.9600 362.0000 1.0000
12.9800 382.0000 1.0000
13.0000 361.0000 1.0000
13.0200 447.0000 1.0000
13.0400 379.0000 1.0000
13.0600 390.0000 1.0000
13.0800 428.0000 1.0000
13.1000 384.0000 1.0000
13.1200 369.0000 1.0000
13.1400 359.0000 1.0000
13.1600 371.0000 1.0000
13.1800 403.0000 1.0000
13.2000 347.0000 1.0000
13.2200 381.0000 1.0000
13.2400 413.0000 1.0000
13.2600 361.0000 1.0000
13.2800 375.0000 1.0000
13.3000 363.0000 1.0000
13.3200 392.0000 1.0000
13.3400 358.0000 1.0000
13.3600 366.0000 1.0000
13.3800 345.0000 1.0000
13.4000 383.0000 1.0000
13.4200 382.0000 1.0000
13.4400 365.0000 1.0000
13.4600 388.0000 1.0000
13.4800 366.0000 1.0000
13.5000 387.0000 1.0000
13.5200 390.0000 1.0000
13.5400 368.0000 1.0000
13.5600 425.0000 1.0000
13.5800 379.0000 1.0000
13.6000 352.0000 1.0000
13.6200 394.0000 1.0000
13.6400 342.0000 1.0000
13.6600 333.0000 1.0000
13.6800 391.0000 1.0000
13.7000 366.0000 1.0000
13.7200 386.0000 1.0000
13.7400 360.0000 1.0000
13.7600 320.0000 1.0000
13.7800 371.0000 1.0000
13.8000 380.0000 1.0000
13.8200 362.0000 1.0000
13.8400 369.0000 1.0000
13.8600 347.0000 1.0000
13.8800 332.0000 1.0000
13.9000 365.0000 1.0000
13.9200 354.0000 1.0000
13.9400 379.0000 1.0000
13.9600 365.0000 1.0000
13.9800 379.0000 1.0000
14.0000 336.0000 1.0000
14.0200 379.0000 1.0000
14.0400 392.0000 1.0000
14.0600 383.0000 1.0000
14.0800 340.0000 1.0000
14.1000 386.0000 1.0000
14.1200 346.0000 1.0000
14.1400 344.0000 1.0000
14.1600 383.0000 1.0000
14.1800 362.0000 1.0000
14.2000 370.0000 1.0000
14.2200 370.0000 1.0000
14.2400 364.0000 1.0000
14.2600 369.0000 1.0000
14.2800 383.0000 1.0000
14.3000 319.0000 1.0000
14.3200 301.0000 1.0000
14.3400 333.0000 1.0000
14.3600 336.0000 1.0000
14.3800 362.0000 1.0000
14.4000 346.0000 1.0000
14.4200 352.0000 1.0000
14.4400 369.0000 1.0000
14.4600 366.0000 1.0000
14.4800 358.0000 1.0000
14.5000 389.0000 1.0000
14.5200 329.0000 1.0000
14.5400 357.0000 1.0000
14.5600 352.0000 1.0000
14.5800 372.0000 1.0000
14.6000 365.0000 1.0000
14.6200 343.0000 1.0000
14.6400 367.0000 1.0000
14.6600 341.0000 1.0000
14.6800 355.0000 1.0000
14.7000 368.0000 1.0000
14.7200 348.0000 1.0000
14.7400 324.0000 1.0000
14.7600 334.0000 1.0000
14.7800 376.0000 1.0000
14.8000 348.0000 1.0000
14.8200 339.0000 1.0000
14.8400 387.0000 1.0000
14.8600 316.0000 1.0000
14.8800 375.0000 1.0000
14.9000 328.0000 1.0000
14.9200 365.0000 1.0000
14.9400 378.0000 1.0000
14.9600 355.0000 1.0000
14.9800 336.0000 1.0000
15.0000 317.0000 1.0000
15.0200 317.0000 1.0000
15.0400 336.0000 1.0000
15.0600 352.0000 1.0000
15.0800 345.0000 1.0000
15.1000 348.0000 1.0000
15.1200 331.0000 1.0000
15.1400 350.0000 1.0000
15.1600 288.0000 1.0000
15.1800 354.0000 1.0000
15.2000 342.0000 1.0000
15.2200 360.0000 1.0000
15.2400 338.0000 1.0000
15.2600 341.0000 1.0000
15.2800 368.0000 1.0000
15.3000 332.0000 1.0000
15.3200 326.0000 1.0000
15.3400 377.0000 1.0000
15.3600 360.0000 1.0000
15.3800 354.0000 1.0000
15.4000 348.0000 1.0000
15.4200 359.0000 1.0000
15.4400 357.0000 1.0000
15.4600 329.0000 1.0000
15.4800 350.0000 1.0000
15.5000 346.0000 1.0000
15.5200 323.0000 1.0000
15.5400 324.0000 1.0000
15.5600 350.0000 1.0000
15.5800 325.0000 1.0000
15.6000 295.0000 1.0000
15.6200 323.0000 1.0000
15.6400 332.0000 1.0000
15.6600 349.0000 1.0000
15.6800 379.0000 1.0000
15.7000 307.0000 1.0000
15.7200 322.0000 1.0000
15.7400 319.0000 1.0000
15.7600 290.0000 1.0000
15.7800 320.0000 1.0000
15.8000 354.0000 1.0000
15.8200 328.0000 1.0000
15.8400 288.0000 1.0000
15.8600 334.0000 1.0000
15.8800 295.0000 1.0000
15.9000 336.0000 1.0000
15.9200 301.0000 1.0000
15.9400 335.0000 1.0000
15.9600 344.0000 1.0000
15.9800 355.0000 1.0000
16.0000 336.0000 1.0000
16.0200 350.0000 1.0000
16.0400 319.0000 1.0000
16.0600 334.0000 1.0000
16.0800 324.0000 1.0000
16.1000 342.0000 1.0000
16.1200 321.0000 1.0000
16.1400 333.0000 1.0000
16.1600 292.0000 1.0000
16.1800 328.0000 1.0000
16.2000 305.0000 1.0000
16.2200 312.0000 1.0000
16.2400 343.0000 1.0000
16.2600 267.0000 1.0000
16.2800 319.0000 1.0000
16.3000 319.0000 1.0000
16.3200 318.0000 1.0000
16.3400 281.0000 1.0000
16.3600 323.0000 1.0000
16.3800 301.0000 1.0000
16.4000 316.0000 1.0000
16.4200 298.0000 1.0000
16.4400 309.0000 1.0000
16.4600 333.0000 1.0000
16.4800 350.0000 1.0000
16.5000 353.0000 1.0000
16.5200 295.0000 1.0000
16.5400 290.0000 1.0000
16.5600 304.0000 1.0000
16.5800 314.0000 1.0000
16.6000 311.0000 1.0000
16.6200 321.0000 1.0000
16.6400 285.0000 1.0000
16.6600 331.0000 1.0000
16.6800 322.0000 1.0000
16.7000 321.0000 1.0000
16.7200 306.0000 1.0000
16.7400 329.0000 1.0000
16.7600 307.0000 1.0000
16.7800 301.0000 1.0000
16.8000 328.0000 1.0000
16.8200 293.0000 1.0000
16.8400 295.0000 1.0000
16.8600 303.0000 1.0000
16.8800 271.0000 1.0000
16.9000 327.0000 1.0000
16.9200 305.0000 1.0000
16.9400 277.0000 1.0000
16.9600 330.0000 1.0000
16.9800 266.0000 1.0000
17.0000 312.0000 1.0000
17.0200 325.0000 1.0000
17.0400 312.0000 1.0000
17.0600 288.0000 1.0000
17.0800 302.0000 1.0000
17.1000 319.0000 1.0000
17.1200 314.0000 1.0000
17.1400 339.0000 1.0000
17.1600 312.0000 1.0000
17.1800 298.0000 1.0000
17.2000 293.0000 1.0000
17.2200 298.0000 1.0000
17.2400 305.0000 1.0000
17.2600 294.0000 1.0000
17.2800 309.0000 1.0000
17.3000 275.0000 1.0000
17.3200 318.0000 1.0000
17.3400 297.0000 1.0000
17.3600 293.0000 1.0000
17.3800 313.0000 1.0000
17.4000 296.0000 1.0000
17.4200 287.0000 1.0000
17.4400 288.0000 1.0000
17.4600 328.0000 1.0000
17.4800 298.0000 1.0000
17.5000 274.0000 1.0000
17.5200 319.0000 1.0000
17.5400 262.0000 1.0000
17.5600 282.0000 1.0000
17.5800 308.0000 1.0000
17.6000 324.0000 1.0000
17.6200 298.0000 1.0000
17.6400 275.0000 1.0000
17.6600 281.0000 1.0000
17.6800 318.0000 1.0000
17.7000 277.0000 1.0000
17.7200 327.0000 1.0000
17.7400 316.0000 1.0000
17.7600 283.0000 1.0000
17.7800 311.0000 1.0000
17.8000 290.0000 1.0000
17.8200 290.0000 1.0000
17.8400 320.0000 1.0000
17.8600 301.0000 1.0000
17.8800 289.0000 1.0000
17.9000 291.0000 1.0000
17.9200 304.0000 1.0000
17.9400 268.0000 1.0000
17.9600 298.0000 1.0000
17.9800 268.0000 1.0000
18.0000 310.0000 1.0000
18.0200 311.0000 1.0000
18.0400 328.0000 1.0000
18.0600 301.0000 1.0000
18.0800 294.0000 1.0000
18.1000 266.0000 1.0000
18.1200 312.0000 1.0000
18.1400 287.0000 1.0000
18.1600 279.0000 1.0000
18.1800 305.0000 1.0000
18.2000 301.0000 1.0000
18.2200 289.0000 1.0000
18.2400 265.0000 1.0000
18.2600 293.0000 1.0000
18.2800 319.0000 1.0000
18.3000 271.0000 1.0000
18.3200 329.0000 1.0000
18.3400 258.0000 1.0000
18.3600 306.0000 1.0000
18.3800 288.0000 1.0000
18.4000 294.0000 1.0000
18.4200 279.0000 1.0000
18.4400 333.0000 1.0000
18.4600 267.0000 1.0000
18.4800 244.0000 1.0000
18.5000 291.0000 1.0000
18.5200 306.0000 1.0000
18.5400 273.0000 1.0000
18.5600 342.0000 1.0000
18.5800 292.0000 1.0000
18.6000 288.0000 1.0000
18.6200 295.0000 1.0000
18.6400 302.0000 1.0000
18.6600 293.0000 1.0000
18.6800 270.0000 1.0000
18.7000 281.0000 1.0000
18.7200 276.0000 1.0000
18.7400 311.0000 1.0000
18.7600 302.0000 1.0000
18.7800 307.0000 1.0000
18.8000 302.0000 1.0000
18.8200 279.0000 1.0000
18.8400 321.0000 1.0000
18.8600 299.0000 1.0000
18.8800 303.0000 1.0000
18.9000 273.0000 1.0000
18.9200 278.0000 1.0000
18.9400 272.0000 1.0000
18.9600 279.0000 1.0000
18.9800 279.0000 1.0000
19.0000 270.0000 1.0000
19.0200 282.0000 1.0000
19.0400 266.0000 1.0000
19.0600 269.0000 1.0000
19.0800 253.0000 1.0000
19.1000 282.0000 1.0000
19.1200 276.0000 1.0000
19.1400 288.0000 1.0000
19.1600 257.0000 1.0000
19.1800 285.0000 1.0000
19.2000 266.0000 1.0000
19.2200 306.0000 1.0000
19.2400 309.0000 1.0000
19.2600 267.0000 1.0000
19.2800 293.0000 1.0000
19.3000 276.0000 1.0000
19.3200 284.0000 1.0000
19.3400 264.0000 1.0000
19.3600 269.0000 1.0000
19.3800 279.0000 1.0000
19.4000 282.0000 1.0000
19.4200 279.0000 1.0000
19.4400 278.0000 1.0000
19.4600 279.0000 1.0000
19.4800 253.0000 1.0000
19.5000 265.0000 1.0000
19.5200 273.0000 1.0000
19.5400 243.0000 1.0000
19.5600 286.0000 1.0000
19.5800 286.0000 1.0000
19.6000 290.0000 1.0000
19.6200 288.0000 1.0000
19.6400 280.0000 1.0000
19.6600 245.0000 1.0000
19.6800 307.0000 1.0000
19.7000 304.0000 1.0000
19.7200 275.0000 1.0000
19.7400 301.0000 1.0000
19.7600 268.0000 1.0000
19.7800 287.0000 1.0000
19.8000 265.0000 1.0000
19.8200 261.0000 1.0000
19.8400 272.0000 1.0000
19.8600 267.0000 1.0000
19.8800 271.0000 1.0000
19.9000 304.0000 1.0000
19.9200 264.0000 1.0000
19.9400 312.0000 1.0000
19.9600 268.0000 1.0000
19.9800 258.0000 1.0000
20.0000 259.0000 1.0000
20.0200 268.0000 1.0000
20.0400 233.0000 1.0000
20.0600 264.0000 1.0000
20.0800 301.0000 1.0000
20.1000 277.0000 1.0000
20.1200 292.0000 1.0000
20.1400 268.0000 1.0000
20.1600 271.0000 1.0000
20.1800 265.0000 1.0000
20.2000 263.0000 1.0000
20.2200 246.0000 1.0000
20.2400 278.0000 1.0000
