*RAS_DATA_START
*RAS_HEADER_START
*DISP_FMT_X "%.2f"
*DISP_FMT_Y "%.0f"
*DISP_FULLSCALE "1434.0000000000"
*DISP_LINE_COLOR "255.0000000000"
*DISP_LINE_STYLE "0.0000000000"
*DISP_LINE_WIDTH "0.2500000000"
*DISP_NOTE "Collected Data-3"
*DISP_OFFSET_Y "0.0000000000"
*DISP_PEAKSEARCH_UNIT_Y "COUNTS"
*DISP_RANGE_BOTTOM "0.0000000000"
*DISP_RANGE_LEFT "10.0000000000"
*DISP_RANGE_LOGCUTOFF "0.0100000000"
*DISP_RANGE_RIGHT "90.0000000000"
*DISP_RANGE_TOP "1434.0000000000"
*DISP_SCALE_MODE_Y "0.0000000000"
*DISP_TAB_NAME "Theta/2-Theta"
*DISP_TITLE_Y "Intensity"
*DISP_UNIT_Y "COUNTS"
*DISP_WINDOW_NAME "MSG_MACROENGINE"
*FILE_COMMENT " "
*FILE_MD5 ""
*FILE_MEMO " "
*FILE_OPERATOR "Administrator"
*FILE_PART_ID "MEAS_PBEA_00223"
*FILE_SAMPLE "Magnetite"
*FILE_TYPE "RAS_RAW"
*FILE_USERGROUP "System Manager"
*FILE_VERSION "1.0000000000"
*HW_ATTACHMENT_ID "ATT1031"
*HW_ATTACHMENT_NAME "6サンプルチェンジャ|ASC-6"
*HW_COUNTER_ID-0 "CUT0021"
*HW_COUNTER_ID-1 "CUT0020"
*HW_COUNTER_ID-2 "CUT0020"
*HW_COUNTER_ID-3 "CMC0021"
*HW_COUNTER_NAME-0 "SC-70|SC-70"
*HW_COUNTER_NAME-1 "None|None"
*HW_COUNTER_NAME-2 "None|None"
*HW_COUNTER_NAME-3 "検出器モノクロメータ|Detector monochromator"
*HW_COUNTER_SELECT_NAME "SC-70|SC-70"
*HW_ECP_HV "714.0000000000"
*HW_ECP_HV_UNIT "V"
*HW_GONIOMETER_ID "GON0070"
*HW_GONIOMETER_NAME "MiniFlex 300/600|MiniFlex 300/600"
*HW_GONIOMETER_RADIUS-0 "79.0"
*HW_GONIOMETER_RADIUS-1 "91.5"
*HW_GONIOMETER_RADIUS-2 "150.0"
*HW_GONIOMETER_RADIUS-3 "0"
*HW_GONIOMETER_RADIUS-4 "103.4"
*HW_GONIOMETER_RADIUS-5 "150.0"
*HW_GONIOMETER_RADIUS-6 "46.6"
*HW_GONIOMETER_RADIUS-7 "160.0"
*HW_I_OPT_ID-0 "ISL0021"
*HW_I_OPT_ID-1 "ISO0021"
*HW_I_OPT_NAME-0 "発散スリット|Divergence slit"
*HW_I_OPT_NAME-1 "入射平行スリット|Incident parallel slit"
*HW_R_ATTENUATER_AUTOMODE "0"
*HW_R_OPT_ID-0 "RSS0021"
*HW_R_OPT_ID-1 "RSO0021"
*HW_R_OPT_ID-2 "RRS0021"
*HW_R_OPT_NAME-0 "散乱スリット|Scattering slit"
*HW_R_OPT_NAME-1 "受光平行スリット|Receiving soller slit"
*HW_R_OPT_NAME-2 "受光スリット|Receiving slit"
*HW_SAMPLE_HOLDER_ID "SMP0000"
*HW_SAMPLE_HOLDER_NAME "無し|None"
*HW_XG_CURRENT_MAX "50"
*HW_XG_CURRENT_MIN "2"
*HW_XG_CURRENT_RESOLUTION "2"
*HW_XG_CURRENT_UNIT "mA"
*HW_XG_FOCUS "1mm x 10mm"
*HW_XG_FOCUS_TYPE "Normal"
*HW_XG_ID "1062"
*HW_XG_NAME "300W/600W 封入管-A|300W/600W Sealed tube-A"
*HW_XG_TARGET_ATOMIC_NUMBER "29.0000000000"
*HW_XG_TARGET_NAME "Cu"
*HW_XG_TYPE "Compact"
*HW_XG_VOLTAGE_MAX "60"
*HW_XG_VOLTAGE_MIN "20"
*HW_XG_VOLTAGE_RESOLUTION "2"
*HW_XG_VOLTAGE_UNIT "kV"
*HW_XG_WATT_MAX "2.000"
*HW_XG_WATT_UNIT "kW"
*HW_XG_WAVE_LENGTH_ALPHA1 "1.540593"
*HW_XG_WAVE_LENGTH_ALPHA2 "1.544414"
*HW_XG_WAVE_LENGTH_BETA "1.392250"
*MEAS_COND_AXIS_NAME-0 "Theta/2-Theta"
*MEAS_COND_AXIS_NAME-1 "Spin"
*MEAS_COND_AXIS_NAME-2 "Change"
*MEAS_COND_AXIS_NAME-3 "Soller(inc.)"
*MEAS_COND_AXIS_NAME-4 "IHS"
*MEAS_COND_AXIS_NAME-5 "DS"
*MEAS_COND_AXIS_NAME-6 "SS"
*MEAS_COND_AXIS_NAME-7 "Soller(rec.)"
*MEAS_COND_AXIS_NAME-8 "RS"
*MEAS_COND_AXIS_NAME-9 "Filter"
*MEAS_COND_AXIS_NAME-10 "Monochromator"
*MEAS_COND_AXIS_NAME-11 "HV"
*MEAS_COND_AXIS_NAME-12 "PHA"
*MEAS_COND_AXIS_NAME_INTERNAL-0 "TwoThetaTheta"
*MEAS_COND_AXIS_NAME_INTERNAL-1 "Spin"
*MEAS_COND_AXIS_NAME_INTERNAL-2 "Change"
*MEAS_COND_AXIS_NAME_INTERNAL-3 "IncidentSollerSlit"
*MEAS_COND_AXIS_NAME_INTERNAL-4 "IncidentAxdSlit"
*MEAS_COND_AXIS_NAME_INTERNAL-5 "IncidentSlitBox"
*MEAS_COND_AXIS_NAME_INTERNAL-6 "ReceivingSlitBox1"
*MEAS_COND_AXIS_NAME_INTERNAL-7 "ReceivingSollerSlit"
*MEAS_COND_AXIS_NAME_INTERNAL-8 "ReceivingSlitBox2"
*MEAS_COND_AXIS_NAME_INTERNAL-9 "Filter"
*MEAS_COND_AXIS_NAME_INTERNAL-10 "CounterMonochromator"
*MEAS_COND_AXIS_NAME_INTERNAL-11 "HV"
*MEAS_COND_AXIS_NAME_INTERNAL-12 "PHA"
*MEAS_COND_AXIS_NAME_MAGICNO-0 "268632064.0000000000"
*MEAS_COND_AXIS_NAME_MAGICNO-1 "16842752.0000000000"
*MEAS_COND_AXIS_NAME_MAGICNO-2 "16842752.0000000000"
*MEAS_COND_AXIS_NAME_MAGICNO-3 "20971521.0000000000"
*MEAS_COND_AXIS_NAME_MAGICNO-4 "22020097.0000000000"
*MEAS_COND_AXIS_NAME_MAGICNO-5 "22020097.0000000000"
*MEAS_COND_AXIS_NAME_MAGICNO-6 "23068673.0000000000"
*MEAS_COND_AXIS_NAME_MAGICNO-7 "20971521.0000000000"
*MEAS_COND_AXIS_NAME_MAGICNO-8 "23068673.0000000000"
*MEAS_COND_AXIS_NAME_MAGICNO-9 "20971521.0000000000"
*MEAS_COND_AXIS_NAME_MAGICNO-10 "20971521.0000000000"
*MEAS_COND_AXIS_NAME_MAGICNO-11 "0.0000000000"
*MEAS_COND_AXIS_NAME_MAGICNO-12 "0.0000000000"
*MEAS_COND_AXIS_OFFSET-0 "0.0000000000"
*MEAS_COND_AXIS_OFFSET-1 "-"
*MEAS_COND_AXIS_OFFSET-2 "-"
*MEAS_COND_AXIS_OFFSET-3 "-"
*MEAS_COND_AXIS_OFFSET-4 "-"
*MEAS_COND_AXIS_OFFSET-5 "-"
*MEAS_COND_AXIS_OFFSET-6 "-"
*MEAS_COND_AXIS_OFFSET-7 "-"
*MEAS_COND_AXIS_OFFSET-8 "-"
*MEAS_COND_AXIS_OFFSET-9 "-"
*MEAS_COND_AXIS_OFFSET-10 "-"
*MEAS_COND_AXIS_OFFSET-11 "-"
*MEAS_COND_AXIS_OFFSET-12 "-"
*MEAS_COND_AXIS_POSITION-0 "90.0100000000"
*MEAS_COND_AXIS_POSITION-1 "0.0000000000"
*MEAS_COND_AXIS_POSITION-2 "5.0000000000"
*MEAS_COND_AXIS_POSITION-3 "2.5deg"
*MEAS_COND_AXIS_POSITION-4 "10.0mm"
*MEAS_COND_AXIS_POSITION-5 "1.250deg"
*MEAS_COND_AXIS_POSITION-6 "13.0mm(Open)"
*MEAS_COND_AXIS_POSITION-7 "5.0deg"
*MEAS_COND_AXIS_POSITION-8 "13.0mm"
*MEAS_COND_AXIS_POSITION-9 "None"
*MEAS_COND_AXIS_POSITION-10 "None"
*MEAS_COND_AXIS_POSITION-11 "714.0000000000"
*MEAS_COND_AXIS_POSITION-12 "568.7500000000"
*MEAS_COND_AXIS_UNIT-0 "deg"
*MEAS_COND_AXIS_UNIT-1 ""
*MEAS_COND_AXIS_UNIT-2 ""
*MEAS_COND_AXIS_UNIT-3 ""
*MEAS_COND_AXIS_UNIT-4 ""
*MEAS_COND_AXIS_UNIT-5 ""
*MEAS_COND_AXIS_UNIT-6 ""
*MEAS_COND_AXIS_UNIT-7 ""
*MEAS_COND_AXIS_UNIT-8 ""
*MEAS_COND_AXIS_UNIT-9 ""
*MEAS_COND_AXIS_UNIT-10 ""
*MEAS_COND_AXIS_UNIT-11 "V"
*MEAS_COND_AXIS_UNIT-12 "mV"
*MEAS_COND_CORRECTION_SLIT_COUNTERMONO "None"
*MEAS_COND_CORRECTION_SLIT_DS "1.250deg"
*MEAS_COND_CORRECTION_SLIT_FILTER "None"
*MEAS_COND_CORRECTION_SLIT_IHS "10.0mm"
*MEAS_COND_CORRECTION_SLIT_RS "13.0mm"
*MEAS_COND_CORRECTION_SLIT_SOLLER_INC "2.5deg"
*MEAS_COND_CORRECTION_SLIT_SOLLER_REC "5.0deg"
*MEAS_COND_CORRECTION_SLIT_SS "13.0mm"
*MEAS_COND_COUNTER_CNTLOSS_CORR "0.0000000000"
*MEAS_COND_COUNTER_PHABASE "568.7500000000"
*MEAS_COND_COUNTER_PHAWINDOW "926.2500000000"
*MEAS_COND_COUNTER_PHA_UNIT "mV"
*MEAS_COND_COUNTER_TAUDIFF "0.2500000000"
*MEAS_COND_COUNTER_TAUINT "0.7500000000"
*MEAS_COND_IRRADIATION_MODE "OFF"
*MEAS_COND_IRRADIATION_WIDTH ""
*MEAS_COND_OPT_ATTR " "
*MEAS_COND_OPT_NAME ""
*MEAS_COND_UNSYMMETRIC_MODE "OFF"
*MEAS_COND_XG_CURRENT "15.0000000000"
*MEAS_COND_XG_VOLTAGE "40.0000000000"
*MEAS_COND_XG_WAVE_TYPE "Ka"
*MEAS_DATA_COUNT "4001.0000000000"
*MEAS_SCAN_AXIS_X "Theta/2-Theta"
*MEAS_SCAN_AXIS_X_INTERNAL "TwoThetaTheta"
*MEAS_SCAN_END_TIME "03/07/24 15:59:09"
*MEAS_SCAN_MODE "CONTINUOUS"
*MEAS_SCAN_MONITOR "0"
*MEAS_SCAN_RESOLUTION_X "0.0025"
*MEAS_SCAN_SPEED "2.0000"
*MEAS_SCAN_SPEED_UNIT "deg/min"
*MEAS_SCAN_SPEED_USER "2.0000"
*MEAS_SCAN_START "10.0000000000"
*MEAS_SCAN_START_TIME "03/07/24 15:18:52"
*MEAS_SCAN_STEP "0.0200000000"
*MEAS_SCAN_STOP "90.0000000000"
*MEAS_SCAN_UNIT_X "deg"
*MEAS_SCAN_UNIT_Y "counts"
*SLIT_SYSTEM "0"
*RAS_HEADER_END
*RAS_INT_START
10.0000 869.0000 1.0000
10.0200 839.0000 1.0000
10.0400 832.0000 1.0000
10.0600 962.0000 1.0000
10.0800 877.0000 1.0000
10.1000 833.0000 1.0000
10.1200 912.0000 1.0000
10.1400 877.0000 1.0000
10.1600 848.0000 1.0000
10.1800 870.0000 1.0000
10.2000 881.0000 1.0000
10.2200 819.0000 1.0000
10.2400 858.0000 1.0000
10.2600 800.0000 1.0000
10.2800 884.0000 1.0000
10.3000 780.0000 1.0000
10.3200 958.0000 1.0000
10.3400 879.0000 1.0000
10.3600 855.0000 1.0000
10.3800 956.0000 1.0000
10.4000 893.0000 1.0000
10.4200 823.0000 1.0000
10.4400 885.0000 1.0000
10.4600 926.0000 1.0000
10.4800 899.0000 1.0000
10.5000 842.0000 1.0000
10.5200 810.0000 1.0000
10.5400 830.0000 1.0000
10.5600 931.0000 1.0000
10.5800 852.0000 1.0000
10.6000 859.0000 1.0000
10.6200 917.0000 1.0000
10.6400 796.0000 1.0000
10.6600 922.0000 1.0000
10.6800 782.0000 1.0000
10.7000 860.0000 1.0000
10.7200 806.0000 1.0000
10.7400 876.0000 1.0000
10.7600 837.0000 1.0000
10.7800 845.0000 1.0000
10.8000 834.0000 1.0000
10.8200 845.0000 1.0000
10.8400 843.0000 1.0000
10.8600 833.0000 1.0000
10.8800 845.0000 1.0000
10.9000 895.0000 1.0000
10.9200 812.0000 1.0000
10.9400 817.0000 1.0000
10.9600 826.0000 1.0000
10.9800 865.0000 1.0000
11.0000 802.0000 1.0000
11.0200 853.0000 1.0000
11.0400 882.0000 1.0000
11.0600 815.0000 1.0000
11.0800 850.0000 1.0000
11.1000 805.0000 1.0000
11.1200 841.0000 1.0000
11.1400 846.0000 1.0000
11.1600 824.0000 1.0000
11.1800 801.0000 1.0000
11.2000 805.0000 1.0000
11.2200 787.0000 1.0000
11.2400 775.0000 1.0000
11.2600 782.0000 1.0000
11.2800 748.0000 1.0000
11.3000 786.0000 1.0000
11.3200 859.0000 1.0000
11.3400 876.0000 1.0000
11.3600 849.0000 1.0000
11.3800 756.0000 1.0000
11.4000 791.0000 1.0000
11.4200 840.0000 1.0000
11.4400 803.0000 1.0000
11.4600 822.0000 1.0000
11.4800 818.0000 1.0000
11.5000 797.0000 1.0000
11.5200 820.0000 1.0000
11.5400 792.0000 1.0000
11.5600 817.0000 1.0000
11.5800 764.0000 1.0000
11.6000 782.0000 1.0000
11.6200 824.0000 1.0000
11.6400 797.0000 1.0000
11.6600 839.0000 1.0000
11.6800 881.0000 1.0000
11.7000 802.0000 1.0000
11.7200 790.0000 1.0000
11.7400 831.0000 1.0000
11.7600 833.0000 1.0000
11.7800 799.0000 1.0000
11.8000 832.0000 1.0000
11.8200 823.0000 1.0000
11.8400 785.0000 1.0000
11.8600 818.0000 1.0000
11.8800 793.0000 1.0000
11.9000 823.0000 1.0000
11.9200 772.0000 1.0000
11.9400 805.0000 1.0000
11.9600 762.0000 1.0000
11.9800 773.0000 1.0000
12.0000 843.0000 1.0000
12.0200 756.0000 1.0000
12.0400 784.0000 1.0000
12.0600 827.0000 1.0000
12.0800 808.0000 1.0000
12.1000 773.0000 1.0000
12.1200 699.0000 1.0000
12.1400 786.0000 1.0000
12.1600 804.0000 1.0000
12.1800 774.0000 1.0000
12.2000 809.0000 1.0000
12.2200 755.0000 1.0000
12.2400 744.0000 1.0000
12.2600 761.0000 1.0000
12.2800 798.0000 1.0000
12.3000 748.0000 1.0000
12.3200 805.0000 1.0000
12.3400 725.0000 1.0000
12.3600 817.0000 1.0000
12.3800 736.0000 1.0000
12.4000 760.0000 1.0000
12.4200 753.0000 1.0000
12.4400 792.0000 1.0000
12.4600 773.0000 1.0000
12.4800 814.0000 1.0000
12.5000 750.0000 1.0000
12.5200 793.0000 1.0000
12.5400 731.0000 1.0000
12.5600 757.0000 1.0000
12.5800 703.0000 1.0000
12.6000 784.0000 1.0000
12.6200 732.0000 1.0000
12.6400 805.0000 1.0000
12.6600 721.0000 1.0000
12.6800 764.0000 1.0000
12.7000 683.0000 1.0000
12.7200 762.0000 1.0000
12.7400 762.0000 1.0000
12.7600 789.0000 1.0000
12.7800 776.0000 1.0000
12.8000 709.0000 1.0000
12.8200 731.0000 1.0000
12.8400 742.0000 1.0000
12.8600 722.0000 1.0000
12.8800 718.0000 1.0000
12.9000 706.0000 1.0000
12.9200 754.0000 1.0000
12.9400 711.0000 1.0000
12.9600 699.0000 1.0000
12.9800 713.0000 1.0000
13.0000 799.0000 1.0000
13.0200 695.0000 1.0000
13.0400 766.0000 1.0000
13.0600 703.0000 1.0000
13.0800 672.0000 1.0000
13.1000 763.0000 1.0000
13.1200 722.0000 1.0000
13.1400 757.0000 1.0000
13.1600 752.0000 1.0000
13.1800 734.0000 1.0000
13.2000 720.0000 1.0000
13.2200 685.0000 1.0000
13.2400 755.0000 1.0000
13.2600 749.0000 1.0000
13.2800 700.0000 1.0000
13.3000 726.0000 1.0000
13.3200 711.0000 1.0000
13.3400 714.0000 1.0000
13.3600 724.0000 1.0000
13.3800 761.0000 1.0000
13.4000 739.0000 1.0000
13.4200 710.0000 1.0000
13.4400 753.0000 1.0000
13.4600 712.0000 1.0000
13.4800 707.0000 1.0000
13.5000 647.0000 1.0000
13.5200 635.0000 1.0000
13.5400 703.0000 1.0000
13.5600 712.0000 1.0000
13.5800 722.0000 1.0000
13.6000 718.0000 1.0000
13.6200 746.0000 1.0000
13.6400 707.0000 1.0000
13.6600 690.0000 1.0000
13.6800 689.0000 1.0000
13.7000 740.0000 1.0000
13.7200 704.0000 1.0000
13.7400 686.0000 1.0000
13.7600 647.0000 1.0000
13.7800 731.0000 1.0000
13.8000 686.0000 1.0000
13.8200 665.0000 1.0000
13.8400 700.0000 1.0000
13.8600 752.0000 1.0000
13.8800 700.0000 1.0000
13.9000 672.0000 1.0000
13.9200 653.0000 1.0000
13.9400 728.0000 1.0000
13.9600 696.0000 1.0000
13.9800 649.0000 1.0000
14.0000 660.0000 1.0000
14.0200 718.0000 1.0000
14.0400 697.0000 1.0000
14.0600 721.0000 1.0000
14.0800 698.0000 1.0000
14.1000 600.0000 1.0000
14.1200 688.0000 1.0000
14.1400 672.0000 1.0000
14.1600 728.0000 1.0000
14.1800 635.0000 1.0000
14.2000 616.0000 1.0000
14.2200 709.0000 1.0000
14.2400 703.0000 1.0000
14.2600 694.0000 1.0000
14.2800 688.0000 1.0000
14.3000 673.0000 1.0000
14.3200 673.0000 1.0000
14.3400 649.0000 1.0000
14.3600 652.0000 1.0000
14.3800 711.0000 1.0000
14.4000 710.0000 1.0000
14.4200 641.0000 1.0000
14.4400 668.0000 1.0000
14.4600 686.0000 1.0000
14.4800 685.0000 1.0000
14.5000 705.0000 1.0000
14.5200 634.0000 1.0000
14.5400 677.0000 1.0000
14.5600 699.0000 1.0000
14.5800 695.0000 1.0000
14.6000 692.0000 1.0000
14.6200 621.0000 1.0000
14.6400 690.0000 1.0000
14.6600 659.0000 1.0000
14.6800 701.0000 1.0000
14.7000 620.0000 1.0000
14.7200 626.0000 1.0000
14.7400 655.0000 1.0000
14.7600 668.0000 1.0000
14.7800 592.0000 1.0000
14.8000 669.0000 1.0000
14.8200 615.0000 1.0000
14.8400 667.0000 1.0000
14.8600 637.0000 1.0000
14.8800 594.0000 1.0000
14.9000 671.0000 1.0000
14.9200 629.0000 1.0000
14.9400 642.0000 1.0000
14.9600 621.0000 1.0000
14.9800 639.0000 1.0000
15.0000 671.0000 1.0000
15.0200 634.0000 1.0000
15.0400 640.0000 1.0000
15.0600 639.0000 1.0000
15.0800 690.0000 1.0000
15.1000 655.0000 1.0000
15.1200 622.0000 1.0000
15.1400 613.0000 1.0000
15.1600 677.0000 1.0000
15.1800 677.0000 1.0000
15.2000 639.0000 1.0000
15.2200 658.0000 1.0000
15.2400 563.0000 1.0000
15.2600 660.0000 1.0000
15.2800 642.0000 1.0000
15.3000 624.0000 1.0000
15.3200 599.0000 1.0000
15.3400 618.0000 1.0000
15.3600 666.0000 1.0000
15.3800 616.0000 1.0000
15.4000 633.0000 1.0000
15.4200 652.0000 1.0000
15.4400 598.0000 1.0000
15.4600 609.0000 1.0000
15.4800 596.0000 1.0000
15.5000 621.0000 1.0000
15.5200 654.0000 1.0000
15.5400 607.0000 1.0000
15.5600 614.0000 1.0000
15.5800 563.0000 1.0000
15.6000 594.0000 1.0000
15.6200 680.0000 1.0000
15.6400 607.0000 1.0000
15.6600 564.0000 1.0000
15.6800 604.0000 1.0000
15.7000 587.0000 1.0000
15.7200 603.0000 1.0000
15.7400 609.0000 1.0000
15.7600 617.0000 1.0000
15.7800 620.0000 1.0000
15.8000 590.0000 1.0000
15.8200 635.0000 1.0000
15.8400 653.0000 1.0000
15.8600 592.0000 1.0000
15.8800 656.0000 1.0000
15.9000 582.0000 1.0000
15.9200 591.0000 1.0000
15.9400 646.0000 1.0000
15.9600 596.0000 1.0000
15.9800 617.0000 1.0000
16.0000 618.0000 1.0000
16.0200 620.0000 1.0000
16.0400 590.0000 1.0000
16.0600 561.0000 1.0000
16.0800 605.0000 1.0000
16.1000 613.0000 1.0000
16.1200 595.0000 1.0000
16.1400 573.0000 1.0000
16.1600 597.0000 1.0000
16.1800 605.0000 1.0000
16.2000 576.0000 1.0000
16.2200 596.0000 1.0000
16.2400 602.0000 1.0000
16.2600 617.0000 1.0000
16.2800 616.0000 1.0000
16.3000 588.0000 1.0000
16.3200 566.0000 1.0000
16.3400 603.0000 1.0000
16.3600 578.0000 1.0000
16.3800 565.0000 1.0000
16.4000 616.0000 1.0000
16.4200 633.0000 1.0000
16.4400 554.0000 1.0000
16.4600 587.0000 1.0000
16.4800 620.0000 1.0000
16.5000 606.0000 1.0000
16.5200 581.0000 1.0000
16.5400 590.0000 1.0000
16.5600 577.0000 1.0000
16.5800 602.0000 1.0000
16.6000 620.0000 1.0000
16.6200 619.0000 1.0000
16.6400 569.0000 1.0000
16.6600 617.0000 1.0000
16.6800 599.0000 1.0000
16.7000 568.0000 1.0000
16.7200 543.0000 1.0000
16.7400 573.0000 1.0000
16.7600 568.0000 1.0000
16.7800 623.0000 1.0000
16.8000 559.0000 1.0000
16.8200 578.0000 1.0000
16.8400 554.0000 1.0000
16.8600 565.0000 1.0000
16.8800 579.0000 1.0000
16.9000 559.0000 1.0000
16.9200 549.0000 1.0000
16.9400 624.0000 1.0000
16.9600 549.0000 1.0000
16.9800 607.0000 1.0000
17.0000 562.0000 1.0000
17.0200 543.0000 1.0000
17.0400 541.0000 1.0000
17.0600 582.0000 1.0000
17.0800 589.0000 1.0000
17.1000 556.0000 1.0000
17.1200 570.0000 1.0000
17.1400 556.0000 1.0000
17.1600 522.0000 1.0000
17.1800 591.0000 1.0000
17.2000 581.0000 1.0000
17.2200 552.0000 1.0000
17.2400 559.0000 1.0000
17.2600 590.0000 1.0000
17.2800 523.0000 1.0000
17.3000 543.0000 1.0000
17.3200 538.0000 1.0000
17.3400 554.0000 1.0000
17.3600 575.0000 1.0000
17.3800 525.0000 1.0000
17.4000 599.0000 1.0000
17.4200 542.0000 1.0000
17.4400 576.0000 1.0000
17.4600 558.0000 1.0000
17.4800 526.0000 1.0000
17.5000 602.0000 1.0000
17.5200 564.0000 1.0000
17.5400 541.0000 1.0000
17.5600 591.0000 1.0000
17.5800 564.0000 1.0000
17.6000 541.0000 1.0000
17.6200 536.0000 1.0000
17.6400 548.0000 1.0000
17.6600 555.0000 1.0000
17.6800 557.0000 1.0000
17.7000 543.0000 1.0000
17.7200 533.0000 1.0000
17.7400 545.0000 1.0000
17.7600 544.0000 1.0000
17.7800 537.0000 1.0000
17.8000 542.0000 1.0000
17.8200 568.0000 1.0000
17.8400 545.0000 1.0000
17.8600 545.0000 1.0000
17.8800 572.0000 1.0000
17.9000 587.0000 1.0000
17.9200 600.0000 1.0000
17.9400 554.0000 1.0000
17.9600 563.0000 1.0000
17.9800 540.0000 1.0000
18.0000 565.0000 1.0000
18.0200 518.0000 1.0000
18.0400 568.0000 1.0000
18.0600 566.0000 1.0000
18.0800 601.0000 1.0000
18.1000 507.0000 1.0000
18.1200 544.0000 1.0000
18.1400 548.0000 1.0000
18.1600 567.0000 1.0000
18.1800 561.0000 1.0000
18.2000 550.0000 1.0000
18.2200 550.0000 1.0000
18.2400 555.0000 1.0000
18.2600 539.0000 1.0000
18.2800 571.0000 1.0000
18.3000 554.0000 1.0000
18.3200 559.0000 1.0000
18.3400 550.0000 1.0000
18.3600 568.0000 1.0000
18.3800 546.0000 1.0000
18.4000 533.0000 1.0000
18.4200 576.0000 1.0000
18.4400 524.0000 1.0000
18.4600 565.0000 1.0000
18.4800 536.0000 1.0000
18.5000 572.0000 1.0000
18.5200 540.0000 1.0000
18.5400 542.0000 1.0000
18.5600 592.0000 1.0000
18.5800 533.0000 1.0000
18.6000 604.0000 1.0000
18.6200 638.0000 1.0000
18.6400 601.0000 1.0000
18.6600 606.0000 1.0000
18.6800 634.0000 1.0000
18.7000 594.0000 1.0000
18.7200 598.0000 1.0000
18.7400 598.0000 1.0000
18.7600 604.0000 1.0000
18.7800 573.0000 1.0000
18.8000 616.0000 1.0000
18.8200 561.0000 1.0000
18.8400 521.0000 1.0000
18.8600 540.0000 1.0000
18.8800 539.0000 1.0000
18.9000 537.0000 1.0000
18.9200 590.0000 1.0000
18.9400 540.0000 1.0000
18.9600 552.0000 1.0000
18.9800 507.0000 1.0000
19.0000 565.0000 1.0000
19.0200 538.0000 1.0000
19.0400 565.0000 1.0000
19.0600 542.0000 1.0000
19.0800 514.0000 1.0000
19.1000 545.0000 1.0000
19.1200 535.0000 1.0000
19.1400 510.0000 1.0000
19.1600 536.0000 1.0000
19.1800 500.0000 1.0000
19.2000 547.0000 1.0000
19.2200 535.0000 1.0000
19.2400 555.0000 1.0000
19.2600 582.0000 1.0000
19.2800 508.0000 1.0000
19.3000 517.0000 1.0000
19.3200 558.0000 1.0000
19.3400 563.0000 1.0000
19.3600 530.0000 1.0000
19.3800 529.0000 1.0000
19.4000 532.0000 1.0000
19.4200 503.0000 1.0000
19.4400 528.0000 1.0000
19.4600 524.0000 1.0000
19.4800 523.0000 1.0000
19.5000 571.0000 1.0000
19.5200 524.0000 1.0000
19.5400 521.0000 1.0000
19.5600 528.0000 1.0000
19.5800 527.0000 1.0000
19.6000 542.0000 1.0000
19.6200 501.0000 1.0000
19.6400 526.0000 1.0000
19.6600 553.0000 1.0000
19.6800 523.0000 1.0000
19.7000 500.0000 1.0000
19.7200 518.0000 1.0000
19.7400 517.0000 1.0000
19.7600 493.0000 1.0000
19.7800 507.0000 1.0000
19.8000 565.0000 1.0000
19.8200 562.0000 1.0000
19.8400 491.0000 1.0000
19.8600 526.0000 1.0000
19.8800 551.0000 1.0000
19.9000 506.0000 1.0000
19.9200 517.0000 1.0000
19.9400 513.0000 1.0000
19.9600 503.0000 1.0000
19.9800 562.0000 1.0000
20.0000 551.0000 1.0000
20.0200 549.0000 1.0000
20.0400 530.0000 1.0000
20.0600 564.0000 1.0000
20.0800 526.0000 1.0000
20.1000 485.0000 1.0000
20.1200 495.0000 1.0000
20.1400 520.0000 1.0000
20.1600 562.0000 1.0000
20.1800 536.0000 1.0000
20.2000 530.0000 1.0000
20.2200 526.0000 1.0000
20.2400 514.0000 1.0000
