*RAS_DATA_START
*RAS_HEADER_START
*DISP_FMT_X "%.2f"
*DISP_FMT_Y "%.0f"
*DISP_FULLSCALE "2031.6000000000"
*DISP_LINE_COLOR "255.0000000000"
*DISP_LINE_STYLE "0.0000000000"
*DISP_LINE_WIDTH "0.2500000000"
*DISP_NOTE "Collected Data-2"
*DISP_OFFSET_Y "0.0000000000"
*DISP_PEAKSEARCH_UNIT_Y "COUNTS"
*DISP_RANGE_BOTTOM "0.0000000000"
*DISP_RANGE_LEFT "10.0000000000"
*DISP_RANGE_LOGCUTOFF "0.0100000000"
*DISP_RANGE_RIGHT "90.0000000000"
*DISP_RANGE_TOP "2031.6000000000"
*DISP_SCALE_MODE_Y "0.0000000000"
*DISP_TAB_NAME "Theta/2-Theta"
*DISP_TITLE_Y "Intensity"
*DISP_UNIT_Y "COUNTS"
*DISP_WINDOW_NAME "MSG_MACROENGINE"
*FILE_COMMENT " "
*FILE_MD5 ""
*FILE_MEMO " "
*FILE_OPERATOR "Administrator"
*FILE_PART_ID "MEAS_PBEA_00223"
*FILE_SAMPLE "Mars"
*FILE_TYPE "RAS_RAW"
*FILE_USERGROUP "System Manager"
*FILE_VERSION "1.0000000000"
*HW_ATTACHMENT_ID "ATT1031"
*HW_ATTACHMENT_NAME "6サンプルチェンジャ|ASC-6"
*HW_COUNTER_ID-0 "CUT0021"
*HW_COUNTER_ID-1 "CUT0020"
*HW_COUNTER_ID-2 "CUT0020"
*HW_COUNTER_ID-3 "CMC0021"
*HW_COUNTER_NAME-0 "SC-70|SC-70"
*HW_COUNTER_NAME-1 "None|None"
*HW_COUNTER_NAME-2 "None|None"
*HW_COUNTER_NAME-3 "検出器モノクロメータ|Detector monochromator"
*HW_COUNTER_SELECT_NAME "SC-70|SC-70"
*HW_ECP_HV "714.0000000000"
*HW_ECP_HV_UNIT "V"
*HW_GONIOMETER_ID "GON0070"
*HW_GONIOMETER_NAME "MiniFlex 300/600|MiniFlex 300/600"
*HW_GONIOMETER_RADIUS-0 "79.0"
*HW_GONIOMETER_RADIUS-1 "91.5"
*HW_GONIOMETER_RADIUS-2 "150.0"
*HW_GONIOMETER_RADIUS-3 "0"
*HW_GONIOMETER_RADIUS-4 "103.4"
*HW_GONIOMETER_RADIUS-5 "150.0"
*HW_GONIOMETER_RADIUS-6 "46.6"
*HW_GONIOMETER_RADIUS-7 "160.0"
*HW_I_OPT_ID-0 "ISL0021"
*HW_I_OPT_ID-1 "ISO0021"
*HW_I_OPT_NAME-0 "発散スリット|Divergence slit"
*HW_I_OPT_NAME-1 "入射平行スリット|Incident parallel slit"
*HW_R_ATTENUATER_AUTOMODE "0"
*HW_R_OPT_ID-0 "RSS0021"
*HW_R_OPT_ID-1 "RSO0021"
*HW_R_OPT_ID-2 "RRS0021"
*HW_R_OPT_NAME-0 "散乱スリット|Scattering slit"
*HW_R_OPT_NAME-1 "受光平行スリット|Receiving soller slit"
*HW_R_OPT_NAME-2 "受光スリット|Receiving slit"
*HW_SAMPLE_HOLDER_ID "SMP0000"
*HW_SAMPLE_HOLDER_NAME "無し|None"
*HW_XG_CURRENT_MAX "50"
*HW_XG_CURRENT_MIN "2"
*HW_XG_CURRENT_RESOLUTION "2"
*HW_XG_CURRENT_UNIT "mA"
*HW_XG_FOCUS "1mm x 10mm"
*HW_XG_FOCUS_TYPE "Normal"
*HW_XG_ID "1062"
*HW_XG_NAME "300W/600W 封入管-A|300W/600W Sealed tube-A"
*HW_XG_TARGET_ATOMIC_NUMBER "29.0000000000"
*HW_XG_TARGET_NAME "Cu"
*HW_XG_TYPE "Compact"
*HW_XG_VOLTAGE_MAX "60"
*HW_XG_VOLTAGE_MIN "20"
*HW_XG_VOLTAGE_RESOLUTION "2"
*HW_XG_VOLTAGE_UNIT "kV"
*HW_XG_WATT_MAX "2.000"
*HW_XG_WATT_UNIT "kW"
*HW_XG_WAVE_LENGTH_ALPHA1 "1.540593"
*HW_XG_WAVE_LENGTH_ALPHA2 "1.544414"
*HW_XG_WAVE_LENGTH_BETA "1.392250"
*MEAS_COND_AXIS_NAME-0 "Theta/2-Theta"
*MEAS_COND_AXIS_NAME-1 "Spin"
*MEAS_COND_AXIS_NAME-2 "Change"
*MEAS_COND_AXIS_NAME-3 "Soller(inc.)"
*MEAS_COND_AXIS_NAME-4 "IHS"
*MEAS_COND_AXIS_NAME-5 "DS"
*MEAS_COND_AXIS_NAME-6 "SS"
*MEAS_COND_AXIS_NAME-7 "Soller(rec.)"
*MEAS_COND_AXIS_NAME-8 "RS"
*MEAS_COND_AXIS_NAME-9 "Filter"
*MEAS_COND_AXIS_NAME-10 "Monochromator"
*MEAS_COND_AXIS_NAME-11 "HV"
*MEAS_COND_AXIS_NAME-12 "PHA"
*MEAS_COND_AXIS_NAME_INTERNAL-0 "TwoThetaTheta"
*MEAS_COND_AXIS_NAME_INTERNAL-1 "Spin"
*MEAS_COND_AXIS_NAME_INTERNAL-2 "Change"
*MEAS_COND_AXIS_NAME_INTERNAL-3 "IncidentSollerSlit"
*MEAS_COND_AXIS_NAME_INTERNAL-4 "IncidentAxdSlit"
*MEAS_COND_AXIS_NAME_INTERNAL-5 "IncidentSlitBox"
*MEAS_COND_AXIS_NAME_INTERNAL-6 "ReceivingSlitBox1"
*MEAS_COND_AXIS_NAME_INTERNAL-7 "ReceivingSollerSlit"
*MEAS_COND_AXIS_NAME_INTERNAL-8 "ReceivingSlitBox2"
*MEAS_COND_AXIS_NAME_INTERNAL-9 "Filter"
*MEAS_COND_AXIS_NAME_INTERNAL-10 "CounterMonochromator"
*MEAS_COND_AXIS_NAME_INTERNAL-11 "HV"
*MEAS_COND_AXIS_NAME_INTERNAL-12 "PHA"
*MEAS_COND_AXIS_NAME_MAGICNO-0 "268632064.0000000000"
*MEAS_COND_AXIS_NAME_MAGICNO-1 "16842752.0000000000"
*MEAS_COND_AXIS_NAME_MAGICNO-2 "16842752.0000000000"
*MEAS_COND_AXIS_NAME_MAGICNO-3 "20971521.0000000000"
*MEAS_COND_AXIS_NAME_MAGICNO-4 "22020097.0000000000"
*MEAS_COND_AXIS_NAME_MAGICNO-5 "22020097.0000000000"
*MEAS_COND_AXIS_NAME_MAGICNO-6 "23068673.0000000000"
*MEAS_COND_AXIS_NAME_MAGICNO-7 "20971521.0000000000"
*MEAS_COND_AXIS_NAME_MAGICNO-8 "23068673.0000000000"
*MEAS_COND_AXIS_NAME_MAGICNO-9 "20971521.0000000000"
*MEAS_COND_AXIS_NAME_MAGICNO-10 "20971521.0000000000"
*MEAS_COND_AXIS_NAME_MAGICNO-11 "0.0000000000"
*MEAS_COND_AXIS_NAME_MAGICNO-12 "0.0000000000"
*MEAS_COND_AXIS_OFFSET-0 "0.0000000000"
*MEAS_COND_AXIS_OFFSET-1 "-"
*MEAS_COND_AXIS_OFFSET-2 "-"
*MEAS_COND_AXIS_OFFSET-3 "-"
*MEAS_COND_AXIS_OFFSET-4 "-"
*MEAS_COND_AXIS_OFFSET-5 "-"
*MEAS_COND_AXIS_OFFSET-6 "-"
*MEAS_COND_AXIS_OFFSET-7 "-"
*MEAS_COND_AXIS_OFFSET-8 "-"
*MEAS_COND_AXIS_OFFSET-9 "-"
*MEAS_COND_AXIS_OFFSET-10 "-"
*MEAS_COND_AXIS_OFFSET-11 "-"
*MEAS_COND_AXIS_OFFSET-12 "-"
*MEAS_COND_AXIS_POSITION-0 "90.0100000000"
*MEAS_COND_AXIS_POSITION-1 "0.0000000000"
*MEAS_COND_AXIS_POSITION-2 "4.0000000000"
*MEAS_COND_AXIS_POSITION-3 "2.5deg"
*MEAS_COND_AXIS_POSITION-4 "10.0mm"
*MEAS_COND_AXIS_POSITION-5 "1.250deg"
*MEAS_COND_AXIS_POSITION-6 "13.0mm(Open)"
*MEAS_COND_AXIS_POSITION-7 "5.0deg"
*MEAS_COND_AXIS_POSITION-8 "13.0mm"
*MEAS_COND_AXIS_POSITION-9 "None"
*MEAS_COND_AXIS_POSITION-10 "None"
*MEAS_COND_AXIS_POSITION-11 "714.0000000000"
*MEAS_COND_AXIS_POSITION-12 "568.7500000000"
*MEAS_COND_AXIS_UNIT-0 "deg"
*MEAS_COND_AXIS_UNIT-1 ""
*MEAS_COND_AXIS_UNIT-2 ""
*MEAS_COND_AXIS_UNIT-3 ""
*MEAS_COND_AXIS_UNIT-4 ""
*MEAS_COND_AXIS_UNIT-5 ""
*MEAS_COND_AXIS_UNIT-6 ""
*MEAS_COND_AXIS_UNIT-7 ""
*MEAS_COND_AXIS_UNIT-8 ""
*MEAS_COND_AXIS_UNIT-9 ""
*MEAS_COND_AXIS_UNIT-10 ""
*MEAS_COND_AXIS_UNIT-11 "V"
*MEAS_COND_AXIS_UNIT-12 "mV"
*MEAS_COND_CORRECTION_SLIT_COUNTERMONO "None"
*MEAS_COND_CORRECTION_SLIT_DS "1.250deg"
*MEAS_COND_CORRECTION_SLIT_FILTER "None"
*MEAS_COND_CORRECTION_SLIT_IHS "10.0mm"
*MEAS_COND_CORRECTION_SLIT_RS "13.0mm"
*MEAS_COND_CORRECTION_SLIT_SOLLER_INC "2.5deg"
*MEAS_COND_CORRECTION_SLIT_SOLLER_REC "5.0deg"
*MEAS_COND_CORRECTION_SLIT_SS "13.0mm"
*MEAS_COND_COUNTER_CNTLOSS_CORR "0.0000000000"
*MEAS_COND_COUNTER_PHABASE "568.7500000000"
*MEAS_COND_COUNTER_PHAWINDOW "926.2500000000"
*MEAS_COND_COUNTER_PHA_UNIT "mV"
*MEAS_COND_COUNTER_TAUDIFF "0.2500000000"
*MEAS_COND_COUNTER_TAUINT "0.7500000000"
*MEAS_COND_IRRADIATION_MODE "OFF"
*MEAS_COND_IRRADIATION_WIDTH ""
*MEAS_COND_OPT_ATTR " "
*MEAS_COND_OPT_NAME ""
*MEAS_COND_UNSYMMETRIC_MODE "OFF"
*MEAS_COND_XG_CURRENT "15.0000000000"
*MEAS_COND_XG_VOLTAGE "40.0000000000"
*MEAS_COND_XG_WAVE_TYPE "Ka"
*MEAS_DATA_COUNT "4001.0000000000"
*MEAS_SCAN_AXIS_X "Theta/2-Theta"
*MEAS_SCAN_AXIS_X_INTERNAL "TwoThetaTheta"
*MEAS_SCAN_END_TIME "03/07/24 15:18:39"
*MEAS_SCAN_MODE "CONTINUOUS"
*MEAS_SCAN_MONITOR "0"
*MEAS_SCAN_RESOLUTION_X "0.0025"
*MEAS_SCAN_SPEED "2.0000"
*MEAS_SCAN_SPEED_UNIT "deg/min"
*MEAS_SCAN_SPEED_USER "2.0000"
*MEAS_SCAN_START "10.0000000000"
*MEAS_SCAN_START_TIME "03/07/24 14:38:21"
*MEAS_SCAN_STEP "0.0200000000"
*MEAS_SCAN_STOP "90.0000000000"
*MEAS_SCAN_UNIT_X "deg"
*MEAS_SCAN_UNIT_Y "counts"
*SLIT_SYSTEM "0"
*RAS_HEADER_END
*RAS_INT_START
10.0000 327.0000 1.0000
10.0200 381.0000 1.0000
10.0400 343.0000 1.0000
10.0600 346.0000 1.0000
10.0800 352.0000 1.0000
10.1000 339.0000 1.0000
10.1200 329.0000 1.0000
10.1400 332.0000 1.0000
10.1600 351.0000 1.0000
10.1800 354.0000 1.0000
10.2000 332.0000 1.0000
10.2200 377.0000 1.0000
10.2400 327.0000 1.0000
10.2600 341.0000 1.0000
10.2800 324.0000 1.0000
10.3000 356.0000 1.0000
10.3200 317.0000 1.0000
10.3400 383.0000 1.0000
10.3600 337.0000 1.0000
10.3800 321.0000 1.0000
10.4000 331.0000 1.0000
10.4200 323.0000 1.0000
10.4400 337.0000 1.0000
10.4600 399.0000 1.0000
10.4800 310.0000 1.0000
10.5000 342.0000 1.0000
10.5200 354.0000 1.0000
10.5400 362.0000 1.0000
10.5600 319.0000 1.0000
10.5800 350.0000 1.0000
10.6000 339.0000 1.0000
10.6200 327.0000 1.0000
10.6400 351.0000 1.0000
10.6600 337.0000 1.0000
10.6800 366.0000 1.0000
10.7000 362.0000 1.0000
10.7200 345.0000 1.0000
10.7400 326.0000 1.0000
10.7600 330.0000 1.0000
10.7800 288.0000 1.0000
10.8000 325.0000 1.0000
10.8200 330.0000 1.0000
10.8400 340.0000 1.0000
10.8600 294.0000 1.0000
10.8800 332.0000 1.0000
10.9000 326.0000 1.0000
10.9200 300.0000 1.0000
10.9400 366.0000 1.0000
10.9600 362.0000 1.0000
10.9800 341.0000 1.0000
11.0000 352.0000 1.0000
11.0200 316.0000 1.0000
11.0400 325.0000 1.0000
11.0600 323.0000 1.0000
11.0800 339.0000 1.0000
11.1000 349.0000 1.0000
11.1200 363.0000 1.0000
11.1400 295.0000 1.0000
11.1600 298.0000 1.0000
11.1800 324.0000 1.0000
11.2000 377.0000 1.0000
11.2200 257.0000 1.0000
11.2400 299.0000 1.0000
11.2600 296.0000 1.0000
11.2800 282.0000 1.0000
11.3000 346.0000 1.0000
11.3200 329.0000 1.0000
11.3400 330.0000 1.0000
11.3600 318.0000 1.0000
11.3800 317.0000 1.0000
11.4000 313.0000 1.0000
11.4200 318.0000 1.0000
11.4400 333.0000 1.0000
11.4600 289.0000 1.0000
11.4800 324.0000 1.0000
11.5000 320.0000 1.0000
11.5200 328.0000 1.0000
11.5400 322.0000 1.0000
11.5600 294.0000 1.0000
11.5800 296.0000 1.0000
11.6000 316.0000 1.0000
11.6200 275.0000 1.0000
11.6400 308.0000 1.0000
11.6600 359.0000 1.0000
11.6800 279.0000 1.0000
11.7000 315.0000 1.0000
11.7200 305.0000 1.0000
11.7400 320.0000 1.0000
11.7600 321.0000 1.0000
11.7800 330.0000 1.0000
11.8000 293.0000 1.0000
11.8200 318.0000 1.0000
11.8400 316.0000 1.0000
11.8600 304.0000 1.0000
11.8800 329.0000 1.0000
11.9000 283.0000 1.0000
11.9200 369.0000 1.0000
11.9400 288.0000 1.0000
11.9600 325.0000 1.0000
11.9800 333.0000 1.0000
12.0000 305.0000 1.0000
12.0200 294.0000 1.0000
12.0400 311.0000 1.0000
12.0600 274.0000 1.0000
12.0800 345.0000 1.0000
12.1000 309.0000 1.0000
12.1200 292.0000 1.0000
12.1400 265.0000 1.0000
12.1600 320.0000 1.0000
12.1800 279.0000 1.0000
12.2000 302.0000 1.0000
12.2200 285.0000 1.0000
12.2400 293.0000 1.0000
12.2600 322.0000 1.0000
12.2800 303.0000 1.0000
12.3000 283.0000 1.0000
12.3200 302.0000 1.0000
12.3400 362.0000 1.0000
12.3600 331.0000 1.0000
12.3800 347.0000 1.0000
12.4000 354.0000 1.0000
12.4200 313.0000 1.0000
12.4400 283.0000 1.0000
12.4600 332.0000 1.0000
12.4800 307.0000 1.0000
12.5000 302.0000 1.0000
12.5200 365.0000 1.0000
12.5400 340.0000 1.0000
12.5600 346.0000 1.0000
12.5800 311.0000 1.0000
12.6000 330.0000 1.0000
12.6200 291.0000 1.0000
12.6400 311.0000 1.0000
12.6600 331.0000 1.0000
12.6800 335.0000 1.0000
12.7000 278.0000 1.0000
12.7200 326.0000 1.0000
12.7400 357.0000 1.0000
12.7600 320.0000 1.0000
12.7800 291.0000 1.0000
12.8000 292.0000 1.0000
12.8200 263.0000 1.0000
12.8400 291.0000 1.0000
12.8600 257.0000 1.0000
12.8800 312.0000 1.0000
12.9000 312.0000 1.0000
12.9200 264.0000 1.0000
12.9400 295.0000 1.0000
12.9600 277.0000 1.0000
12.9800 288.0000 1.0000
13.0000 269.0000 1.0000
13.0200 303.0000 1.0000
13.0400 287.0000 1.0000
13.0600 244.0000 1.0000
13.0800 257.0000 1.0000
13.1000 290.0000 1.0000
13.1200 275.0000 1.0000
13.1400 249.0000 1.0000
13.1600 263.0000 1.0000
13.1800 233.0000 1.0000
13.2000 262.0000 1.0000
13.2200 289.0000 1.0000
13.2400 293.0000 1.0000
13.2600 277.0000 1.0000
13.2800 263.0000 1.0000
13.3000 269.0000 1.0000
13.3200 270.0000 1.0000
13.3400 310.0000 1.0000
13.3600 262.0000 1.0000
13.3800 292.0000 1.0000
13.4000 283.0000 1.0000
13.4200 286.0000 1.0000
13.4400 287.0000 1.0000
13.4600 267.0000 1.0000
13.4800 265.0000 1.0000
13.5000 276.0000 1.0000
13.5200 263.0000 1.0000
13.5400 286.0000 1.0000
13.5600 272.0000 1.0000
13.5800 262.0000 1.0000
13.6000 274.0000 1.0000
13.6200 245.0000 1.0000
13.6400 254.0000 1.0000
13.6600 241.0000 1.0000
13.6800 259.0000 1.0000
13.7000 276.0000 1.0000
13.7200 255.0000 1.0000
13.7400 308.0000 1.0000
13.7600 246.0000 1.0000
13.7800 259.0000 1.0000
13.8000 279.0000 1.0000
13.8200 260.0000 1.0000
13.8400 281.0000 1.0000
13.8600 261.0000 1.0000
13.8800 286.0000 1.0000
13.9000 260.0000 1.0000
13.9200 254.0000 1.0000
13.9400 270.0000 1.0000
13.9600 280.0000 1.0000
13.9800 276.0000 1.0000
14.0000 291.0000 1.0000
14.0200 255.0000 1.0000
14.0400 297.0000 1.0000
14.0600 248.0000 1.0000
14.0800 267.0000 1.0000
14.1000 283.0000 1.0000
14.1200 231.0000 1.0000
14.1400 229.0000 1.0000
14.1600 272.0000 1.0000
14.1800 273.0000 1.0000
14.2000 248.0000 1.0000
14.2200 245.0000 1.0000
14.2400 243.0000 1.0000
14.2600 248.0000 1.0000
14.2800 239.0000 1.0000
14.3000 249.0000 1.0000
14.3200 248.0000 1.0000
14.3400 232.0000 1.0000
14.3600 254.0000 1.0000
14.3800 256.0000 1.0000
14.4000 256.0000 1.0000
14.4200 254.0000 1.0000
14.4400 233.0000 1.0000
14.4600 254.0000 1.0000
14.4800 239.0000 1.0000
14.5000 249.0000 1.0000
14.5200 217.0000 1.0000
14.5400 251.0000 1.0000
14.5600 261.0000 1.0000
14.5800 244.0000 1.0000
14.6000 242.0000 1.0000
14.6200 228.0000 1.0000
14.6400 224.0000 1.0000
14.6600 255.0000 1.0000
14.6800 255.0000 1.0000
14.7000 278.0000 1.0000
14.7200 205.0000 1.0000
14.7400 236.0000 1.0000
14.7600 236.0000 1.0000
14.7800 227.0000 1.0000
14.8000 244.0000 1.0000
14.8200 259.0000 1.0000
14.8400 240.0000 1.0000
14.8600 239.0000 1.0000
14.8800 252.0000 1.0000
14.9000 231.0000 1.0000
14.9200 218.0000 1.0000
14.9400 233.0000 1.0000
14.9600 277.0000 1.0000
14.9800 247.0000 1.0000
15.0000 222.0000 1.0000
15.0200 237.0000 1.0000
15.0400 253.0000 1.0000
15.0600 245.0000 1.0000
15.0800 237.0000 1.0000
15.1000 226.0000 1.0000
15.1200 251.0000 1.0000
15.1400 270.0000 1.0000
15.1600 237.0000 1.0000
15.1800 285.0000 1.0000
15.2000 269.0000 1.0000
15.2200 240.0000 1.0000
15.2400 232.0000 1.0000
15.2600 218.0000 1.0000
15.2800 218.0000 1.0000
15.3000 270.0000 1.0000
15.3200 230.0000 1.0000
15.3400 247.0000 1.0000
15.3600 208.0000 1.0000
15.3800 235.0000 1.0000
15.4000 236.0000 1.0000
15.4200 236.0000 1.0000
15.4400 238.0000 1.0000
15.4600 224.0000 1.0000
15.4800 249.0000 1.0000
15.5000 199.0000 1.0000
15.5200 227.0000 1.0000
15.5400 202.0000 1.0000
15.5600 244.0000 1.0000
15.5800 243.0000 1.0000
15.6000 215.0000 1.0000
15.6200 216.0000 1.0000
15.6400 214.0000 1.0000
15.6600 230.0000 1.0000
15.6800 193.0000 1.0000
15.7000 215.0000 1.0000
15.7200 241.0000 1.0000
15.7400 237.0000 1.0000
15.7600 200.0000 1.0000
15.7800 215.0000 1.0000
15.8000 223.0000 1.0000
15.8200 238.0000 1.0000
15.8400 222.0000 1.0000
15.8600 233.0000 1.0000
15.8800 202.0000 1.0000
15.9000 207.0000 1.0000
15.9200 264.0000 1.0000
15.9400 209.0000 1.0000
15.9600 188.0000 1.0000
15.9800 233.0000 1.0000
16.0000 233.0000 1.0000
16.0200 240.0000 1.0000
16.0400 216.0000 1.0000
16.0600 257.0000 1.0000
16.0800 210.0000 1.0000
16.1000 220.0000 1.0000
16.1200 234.0000 1.0000
16.1400 252.0000 1.0000
16.1600 231.0000 1.0000
16.1800 201.0000 1.0000
16.2000 203.0000 1.0000
16.2200 214.0000 1.0000
16.2400 180.0000 1.0000
16.2600 233.0000 1.0000
16.2800 193.0000 1.0000
16.3000 252.0000 1.0000
16.3200 201.0000 1.0000
16.3400 229.0000 1.0000
16.3600 218.0000 1.0000
16.3800 238.0000 1.0000
16.4000 195.0000 1.0000
16.4200 217.0000 1.0000
16.4400 194.0000 1.0000
16.4600 216.0000 1.0000
16.4800 218.0000 1.0000
16.5000 199.0000 1.0000
16.5200 213.0000 1.0000
16.5400 183.0000 1.0000
16.5600 229.0000 1.0000
16.5800 225.0000 1.0000
16.6000 204.0000 1.0000
16.6200 211.0000 1.0000
16.6400 212.0000 1.0000
16.6600 183.0000 1.0000
16.6800 213.0000 1.0000
16.7000 217.0000 1.0000
16.7200 223.0000 1.0000
16.7400 195.0000 1.0000
16.7600 189.0000 1.0000
16.7800 170.0000 1.0000
16.8000 220.0000 1.0000
16.8200 197.0000 1.0000
16.8400 224.0000 1.0000
16.8600 188.0000 1.0000
16.8800 228.0000 1.0000
16.9000 205.0000 1.0000
16.9200 206.0000 1.0000
16.9400 223.0000 1.0000
16.9600 220.0000 1.0000
16.9800 214.0000 1.0000
17.0000 177.0000 1.0000
17.0200 221.0000 1.0000
17.0400 214.0000 1.0000
17.0600 196.0000 1.0000
17.0800 208.0000 1.0000
17.1000 203.0000 1.0000
17.1200 194.0000 1.0000
17.1400 183.0000 1.0000
17.1600 226.0000 1.0000
17.1800 229.0000 1.0000
17.2000 214.0000 1.0000
17.2200 193.0000 1.0000
17.2400 221.0000 1.0000
17.2600 217.0000 1.0000
17.2800 217.0000 1.0000
17.3000 206.0000 1.0000
17.3200 200.0000 1.0000
17.3400 210.0000 1.0000
17.3600 218.0000 1.0000
17.3800 201.0000 1.0000
17.4000 210.0000 1.0000
17.4200 210.0000 1.0000
17.4400 210.0000 1.0000
17.4600 186.0000 1.0000
17.4800 176.0000 1.0000
17.5000 196.0000 1.0000
17.5200 174.0000 1.0000
17.5400 191.0000 1.0000
17.5600 202.0000 1.0000
17.5800 196.0000 1.0000
17.6000 196.0000 1.0000
17.6200 195.0000 1.0000
17.6400 186.0000 1.0000
17.6600 203.0000 1.0000
17.6800 183.0000 1.0000
17.7000 170.0000 1.0000
17.7200 206.0000 1.0000
17.7400 185.0000 1.0000
17.7600 204.0000 1.0000
17.7800 207.0000 1.0000
17.8000 191.0000 1.0000
17.8200 227.0000 1.0000
17.8400 186.0000 1.0000
17.8600 205.0000 1.0000
17.8800 203.0000 1.0000
17.9000 209.0000 1.0000
17.9200 216.0000 1.0000
17.9400 224.0000 1.0000
17.9600 212.0000 1.0000
17.9800 216.0000 1.0000
18.0000 206.0000 1.0000
18.0200 216.0000 1.0000
18.0400 189.0000 1.0000
18.0600 194.0000 1.0000
18.0800 200.0000 1.0000
18.1000 199.0000 1.0000
18.1200 180.0000 1.0000
18.1400 194.0000 1.0000
18.1600 195.0000 1.0000
18.1800 213.0000 1.0000
18.2000 229.0000 1.0000
18.2200 196.0000 1.0000
18.2400 182.0000 1.0000
18.2600 201.0000 1.0000
18.2800 169.0000 1.0000
18.3000 208.0000 1.0000
18.3200 175.0000 1.0000
18.3400 192.0000 1.0000
18.3600 159.0000 1.0000
18.3800 211.0000 1.0000
18.4000 208.0000 1.0000
18.4200 194.0000 1.0000
18.4400 166.0000 1.0000
18.4600 203.0000 1.0000
18.4800 181.0000 1.0000
18.5000 191.0000 1.0000
18.5200 202.0000 1.0000
18.5400 184.0000 1.0000
18.5600 182.0000 1.0000
18.5800 199.0000 1.0000
18.6000 186.0000 1.0000
18.6200 223.0000 1.0000
18.6400 185.0000 1.0000
18.6600 187.0000 1.0000
18.6800 203.0000 1.0000
18.7000 212.0000 1.0000
18.7200 211.0000 1.0000
18.7400 174.0000 1.0000
18.7600 198.0000 1.0000
18.7800 169.0000 1.0000
18.8000 190.0000 1.0000
18.8200 207.0000 1.0000
18.8400 238.0000 1.0000
18.8600 197.0000 1.0000
18.8800 201.0000 1.0000
18.9000 207.0000 1.0000
18.9200 173.0000 1.0000
18.9400 208.0000 1.0000
18.9600 170.0000 1.0000
18.9800 199.0000 1.0000
19.0000 197.0000 1.0000
19.0200 168.0000 1.0000
19.0400 191.0000 1.0000
19.0600 184.0000 1.0000
19.0800 193.0000 1.0000
19.1000 167.0000 1.0000
19.1200 179.0000 1.0000
19.1400 159.0000 1.0000
19.1600 166.0000 1.0000
19.1800 184.0000 1.0000
19.2000 170.0000 1.0000
19.2200 162.0000 1.0000
19.2400 183.0000 1.0000
19.2600 180.0000 1.0000
19.2800 181.0000 1.0000
19.3000 192.0000 1.0000
19.3200 198.0000 1.0000
19.3400 203.0000 1.0000
19.3600 199.0000 1.0000
19.3800 190.0000 1.0000
19.4000 166.0000 1.0000
19.4200 196.0000 1.0000
19.4400 193.0000 1.0000
19.4600 188.0000 1.0000
19.4800 191.0000 1.0000
19.5000 201.0000 1.0000
19.5200 181.0000 1.0000
19.5400 191.0000 1.0000
19.5600 186.0000 1.0000
19.5800 189.0000 1.0000
19.6000 198.0000 1.0000
19.6200 204.0000 1.0000
19.6400 197.0000 1.0000
19.6600 208.0000 1.0000
19.6800 182.0000 1.0000
19.7000 216.0000 1.0000
19.7200 192.0000 1.0000
19.7400 179.0000 1.0000
19.7600 192.0000 1.0000
19.7800 185.0000 1.0000
19.8000 176.0000 1.0000
19.8200 169.0000 1.0000
19.8400 191.0000 1.0000
19.8600 225.0000 1.0000
19.8800 217.0000 1.0000
19.9000 217.0000 1.0000
19.9200 192.0000 1.0000
19.9400 212.0000 1.0000
19.9600 198.0000 1.0000
19.9800 207.0000 1.0000
20.0000 208.0000 1.0000
20.0200 213.0000 1.0000
20.0400 212.0000 1.0000
20.0600 230.0000 1.0000
20.0800 186.0000 1.0000
20.1000 202.0000 1.0000
20.1200 194.0000 1.0000
20.1400 203.0000 1.0000
20.1600 211.0000 1.0000
20.1800 191.0000 1.0000
20.2000 181.0000 1.0000
20.2200 204.0000 1.0000
20.2400 200.0000 1.0000
